; C:\DIFFDAT1\MK\Auftragsmessungen\Schmeiﬂer\Polymer Glas\2010_12_01\P3HTrr101130_1.raw(Diffrac Plus V1.01 file) converted by XCH V1.0
_FILEVERSION=2
_SAMPLE='P3HTrr101130'
_SITE='Deutschland'
_USER='LS Leichtbaukeramik'
_ATTACHMENTS_CODE=0
_GONIOMETER_RADIUS=250.000000
_FIXED_DIVSLIT=0.600000
_FIXED_SAMPLESLIT=0.000000
_FIXED_DETSLIT=10.500000
_MONOCHROMATOR=0
; None
_THIN_FILM='N'
_BETA_FILTER='Y'
_FIXED_ANTISLIT=6.760000
_ANALYZER_CODE=0
; None
_DATEMEASURED='01-Dec-2010 11:00:32'
_WL_UNIT='A'
_WL1=1.540600
_WL2=1.544390
_WL3=1.392220
_WLRATIO=0.500000
_ANODE='Cu'
; (Data for Range number 1)
_DRIVE='2THETA'
_STEPTIME=0.500000
_STEPSIZE=0.020000
_STEPMODE='C'
_START=5.000000
_THETA=3.000000
_2THETA=5.000000
_KHI=0.000000
_PHI=0.000000
_X=0.000000
_Y=0.000000
_Z=0.000000
_DIVERGENCE=0.499000
_ANTISCATTER=0.499000
_DETECTOR=1
; S.C.
_HV=671.000000
_GAIN=80.000000
_LLD=0.600000
_ULD=1.800000
_DETECTORSLIT='unkn'
_AUX1=0.000000
_AUX2=0.000000
_AUX3=0.000000
_TIMESTARTED=19.000000
_TEMP_RATE=-1.000000
_TEMP_DELAY=-1.000000
_KV=40
_MA=40
_RANGE_WL=1.540600
_3DPLANE=0
_2THETACOUNTS
5.0000	2552
5.0200	2575
5.0400	3106
5.0600	3244
5.0800	2878
5.1000	2990
5.1200	3375
5.1400	3788
5.1600	3242
5.1800	3279
5.2000	3855
5.2200	4495
5.2400	3674
5.2600	3884
5.2800	4336
5.3000	4912
5.3200	4297
5.3400	4589
5.3600	4621
5.3800	5153
5.4000	4594
5.4200	4852
5.4400	4450
5.4600	4628
5.4800	4448
5.5000	4740
5.5200	3937
5.5400	3910
5.5600	3871
5.5800	4112
5.6000	3274
5.6200	3217
5.6400	3117
5.6600	3266
5.6800	2556
5.7000	2489
5.7200	2354
5.7400	2566
5.7600	2034
5.7800	1956
5.8000	1860
5.8200	2036
5.8400	1573
5.8600	1544
5.8800	1487
5.9000	1662
5.9200	1342
5.9400	1284
5.9600	1161
5.9800	1282
6.0000	1112
6.0200	1128
6.0400	1055
6.0600	1097
6.0800	961
6.1000	936
6.1200	938
6.1400	1059
6.1600	855
6.1800	903
6.2000	833
6.2200	885
6.2400	797
6.2600	802
6.2800	777
6.3000	778
6.3200	796
6.3400	796
6.3600	727
6.3800	760
6.4000	704
6.4200	709
6.4400	704
6.4600	734
6.4800	678
6.5000	706
6.5200	672
6.5400	659
6.5600	628
6.5800	646
6.6000	670
6.6200	680
6.6400	636
6.6600	619
6.6800	654
6.7000	588
6.7200	640
6.7400	607
6.7600	594
6.7800	590
6.8000	598
6.8200	613
6.8400	561
6.8600	591
6.8800	582
6.9000	534
6.9200	585
6.9400	550
6.9600	564
6.9800	621
7.0000	576
7.0200	593
7.0400	574
7.0600	519
7.0800	568
7.1000	489
7.1200	524
7.1400	556
7.1600	555
7.1800	525
7.2000	525
7.2200	540
7.2400	502
7.2600	543
7.2800	518
7.3000	554
7.3200	537
7.3400	508
7.3600	511
7.3800	521
7.4000	526
7.4200	502
7.4400	485
7.4600	514
7.4800	556
7.5000	491
7.5200	477
7.5400	508
7.5600	520
7.5800	505
7.6000	487
7.6200	498
7.6400	485
7.6600	518
7.6800	494
7.7000	481
7.7200	509
7.7400	481
7.7600	467
7.7800	487
7.8000	524
7.8200	486
7.8400	493
7.8600	504
7.8800	503
7.9000	451
7.9200	466
7.9400	483
7.9600	485
7.9800	484
8.0000	526
8.0200	448
8.0400	482
8.0600	440
8.0800	486
8.1000	460
8.1200	491
8.1400	442
8.1600	465
8.1800	496
8.2000	484
8.2200	467
8.2400	441
8.2600	473
8.2800	544
8.3000	482
8.3200	471
8.3400	520
8.3600	472
8.3800	503
8.4000	505
8.4200	450
8.4400	534
8.4600	532
8.4800	444
8.5000	466
8.5200	483
8.5400	542
8.5600	494
8.5800	490
8.6000	514
8.6200	535
8.6400	491
8.6600	511
8.6800	543
8.7000	526
8.7200	504
8.7400	537
8.7600	512
8.7800	523
8.8000	475
8.8200	502
8.8400	539
8.8600	572
8.8800	538
8.9000	529
8.9200	619
8.9400	589
8.9600	561
8.9800	515
9.0000	565
9.0200	588
9.0400	514
9.0600	545
9.0800	615
9.1000	605
9.1200	546
9.1400	610
9.1600	608
9.1800	604
9.2000	594
9.2200	539
9.2400	628
9.2600	617
9.2800	566
9.3000	599
9.3200	677
9.3400	610
9.3600	548
9.3800	569
9.4000	646
9.4200	585
9.4400	607
9.4600	589
9.4800	616
9.5000	591
9.5200	605
9.5400	544
9.5600	626
9.5800	628
9.6000	601
9.6200	557
9.6400	638
9.6600	603
9.6800	569
9.7000	617
9.7200	636
9.7400	642
9.7600	564
9.7800	578
9.8000	594
9.8200	605
9.8400	559
9.8600	614
9.8800	628
9.9000	612
9.9200	549
9.9400	561
9.9600	589
9.9800	630
10.0000	561
10.0200	569
10.0400	582
10.0600	586
10.0800	583
10.1000	566
10.1200	613
10.1400	626
10.1600	555
10.1800	605
10.2000	602
10.2200	610
10.2400	606
10.2600	582
10.2800	575
10.3000	603
10.3200	541
10.3400	605
10.3600	605
10.3800	675
10.4000	607
10.4200	592
10.4400	598
10.4600	656
10.4800	594
10.5000	601
10.5200	703
10.5400	642
10.5600	637
10.5800	622
10.6000	646
10.6200	688
10.6400	614
10.6600	664
10.6800	670
10.7000	717
10.7200	632
10.7400	643
10.7600	612
10.7800	674
10.8000	714
10.8200	695
10.8400	689
10.8600	621
10.8800	618
10.9000	658
10.9200	635
10.9400	657
10.9600	581
10.9800	608
11.0000	615
11.0200	570
11.0400	540
11.0600	605
11.0800	549
11.1000	537
11.1200	550
11.1400	542
11.1600	519
11.1800	511
11.2000	510
11.2200	500
11.2400	470
11.2600	473
11.2800	447
11.3000	449
11.3200	438
11.3400	469
11.3600	419
11.3800	447
11.4000	457
11.4200	426
11.4400	425
11.4600	417
11.4800	437
11.5000	387
11.5200	427
11.5400	421
11.5600	363
11.5800	418
11.6000	369
11.6200	387
11.6400	376
11.6600	364
11.6800	373
11.7000	369
11.7200	340
11.7400	340
11.7600	334
11.7800	378
11.8000	374
11.8200	340
11.8400	329
11.8600	328
11.8800	341
11.9000	336
11.9200	315
11.9400	336
11.9600	316
11.9800	326
12.0000	312
12.0200	314
12.0400	320
12.0600	312
12.0800	284
12.1000	328
12.1200	315
12.1400	279
12.1600	277
12.1800	354
12.2000	289
12.2200	271
12.2400	291
12.2600	321
12.2800	298
12.3000	330
12.3200	269
12.3400	282
12.3600	293
12.3800	315
12.4000	296
12.4200	270
12.4400	318
12.4600	276
12.4800	272
12.5000	283
12.5200	289
12.5400	287
12.5600	276
12.5800	268
12.6000	307
12.6200	251
12.6400	269
12.6600	280
12.6800	262
12.7000	246
12.7200	238
12.7400	257
12.7600	285
12.7800	259
12.8000	264
12.8200	267
12.8400	295
12.8600	255
12.8800	308
12.9000	249
12.9200	246
12.9400	247
12.9600	254
12.9800	271
13.0000	238
13.0200	276
13.0400	227
13.0600	254
13.0800	274
13.1000	265
13.1200	241
13.1400	244
13.1600	285
13.1800	225
13.2000	247
13.2200	253
13.2400	235
13.2600	241
13.2800	267
13.3000	247
13.3200	282
13.3400	224
13.3600	248
13.3800	263
13.4000	240
13.4200	275
13.4400	266
13.4600	241
13.4800	258
13.5000	236
13.5200	216
13.5400	249
13.5600	266
13.5800	268
13.6000	228
13.6200	263
13.6400	254
13.6600	241
13.6800	256
13.7000	278
13.7200	242
13.7400	267
13.7600	219
13.7800	272
13.8000	252
13.8200	218
13.8400	243
13.8600	250
13.8800	239
13.9000	239
13.9200	256
13.9400	248
13.9600	245
13.9800	270
14.0000	243
14.0200	247
14.0400	279
14.0600	266
14.0800	257
14.1000	247
14.1200	247
14.1400	239
14.1600	281
14.1800	271
14.2000	247
14.2200	288
14.2400	256
14.2600	276
14.2800	250
14.3000	272
14.3200	304
14.3400	277
14.3600	250
14.3800	282
14.4000	245
14.4200	262
14.4400	266
14.4600	261
14.4800	285
14.5000	284
14.5200	304
14.5400	253
14.5600	276
14.5800	286
14.6000	296
14.6200	284
14.6400	305
14.6600	304
14.6800	260
14.7000	287
14.7200	293
14.7400	274
14.7600	254
14.7800	282
14.8000	276
14.8200	272
14.8400	254
14.8600	276
14.8800	275
14.9000	295
14.9200	284
14.9400	269
14.9600	288
14.9800	297
15.0000	276
15.0200	271
15.0400	313
15.0600	267
15.0800	287
15.1000	309
15.1200	310
15.1400	272
15.1600	280
15.1800	294
15.2000	324
15.2200	290
15.2400	285
15.2600	305
15.2800	291
15.3000	289
15.3200	303
15.3400	289
15.3600	316
15.3800	294
15.4000	309
15.4200	320
15.4400	293
15.4600	298
15.4800	305
15.5000	321
15.5200	345
15.5400	309
15.5600	323
15.5800	340
15.6000	324
15.6200	334
15.6400	368
15.6600	354
15.6800	342
15.7000	375
15.7200	309
15.7400	359
15.7600	372
15.7800	358
15.8000	344
15.8200	367
15.8400	366
15.8600	366
15.8800	338
15.9000	378
15.9200	344
15.9400	374
15.9600	398
15.9800	387
16.0000	386
16.0200	380
16.0400	365
16.0600	396
16.0800	408
16.1000	413
16.1200	401
16.1400	402
16.1600	363
16.1800	415
16.2000	422
16.2200	401
16.2400	403
16.2600	375
16.2800	397
16.3000	415
16.3200	385
16.3400	398
16.3600	381
16.3800	411
16.4000	368
16.4200	402
16.4400	413
16.4600	378
16.4800	374
16.5000	342
16.5200	378
16.5400	352
16.5600	365
16.5800	378
16.6000	313
16.6200	371
16.6400	351
16.6600	341
16.6800	307
16.7000	335
16.7200	309
16.7400	320
16.7600	367
16.7800	336
16.8000	325
16.8200	340
16.8400	341
16.8600	334
16.8800	311
16.9000	311
16.9200	287
16.9400	313
16.9600	322
16.9800	294
17.0000	310
17.0200	332
17.0400	321
17.0600	278
17.0800	321
17.1000	282
17.1200	306
17.1400	300
17.1600	258
17.1800	303
17.2000	268
17.2200	300
17.2400	283
17.2600	275
17.2800	287
17.3000	296
17.3200	268
17.3400	266
17.3600	295
17.3800	260
17.4000	238
17.4200	288
17.4400	270
17.4600	273
17.4800	257
17.5000	286
17.5200	258
17.5400	288
17.5600	275
17.5800	290
17.6000	290
17.6200	252
17.6400	256
17.6600	277
17.6800	286
17.7000	308
17.7200	269
17.7400	269
17.7600	254
17.7800	279
17.8000	284
17.8200	284
17.8400	272
17.8600	271
17.8800	254
17.9000	275
17.9200	271
17.9400	293
17.9600	240
17.9800	257
18.0000	275
18.0200	278
18.0400	248
18.0600	287
18.0800	288
18.1000	284
18.1200	237
18.1400	271
18.1600	263
18.1800	268
18.2000	261
18.2200	277
18.2400	262
18.2600	272
18.2800	259
18.3000	274
18.3200	266
18.3400	301
18.3600	249
18.3800	272
18.4000	278
18.4200	290
18.4400	254
18.4600	277
18.4800	252
18.5000	270
18.5200	271
18.5400	299
18.5600	277
18.5800	281
18.6000	263
18.6200	280
18.6400	271
18.6600	313
18.6800	257
18.7000	285
18.7200	262
18.7400	296
18.7600	286
18.7800	294
18.8000	285
18.8200	267
18.8400	272
18.8600	273
18.8800	306
18.9000	292
18.9200	290
18.9400	273
18.9600	277
18.9800	298
19.0000	277
19.0200	281
19.0400	307
19.0600	291
19.0800	261
19.1000	315
19.1200	271
19.1400	319
19.1600	272
19.1800	279
19.2000	291
19.2200	287
19.2400	303
19.2600	291
19.2800	305
19.3000	290
19.3200	292
19.3400	289
19.3600	288
19.3800	298
19.4000	294
19.4200	280
19.4400	332
19.4600	289
19.4800	304
19.5000	294
19.5200	281
19.5400	301
19.5600	287
19.5800	305
19.6000	297
19.6200	305
19.6400	269
19.6600	258
19.6800	295
19.7000	316
19.7200	308
19.7400	293
19.7600	262
19.7800	305
19.8000	300
19.8200	290
19.8400	290
19.8600	294
19.8800	306
19.9000	269
19.9200	262
19.9400	326
19.9600	283
19.9800	289
20.0000	289
20.0200	331
20.0400	284
20.0600	281
20.0800	309
20.1000	312
20.1200	322
20.1400	285
20.1600	303
20.1800	337
20.2000	283
20.2200	308
20.2400	285
20.2600	299
20.2800	319
20.3000	286
20.3200	303
20.3400	312
20.3600	320
20.3800	301
20.4000	298
20.4200	301
20.4400	282
20.4600	286
20.4800	333
20.5000	315
20.5200	296
20.5400	309
20.5600	322
20.5800	321
20.6000	295
20.6200	313
20.6400	333
20.6600	301
20.6800	312
20.7000	308
20.7200	330
20.7400	336
20.7600	315
20.7800	340
20.8000	294
20.8200	333
20.8400	281
20.8600	315
20.8800	328
20.9000	288
20.9200	314
20.9400	300
20.9600	305
20.9800	284
21.0000	301
21.0200	317
21.0400	317
21.0600	327
21.0800	321
21.1000	332
21.1200	332
21.1400	276
21.1600	355
21.1800	331
21.2000	320
21.2200	350
21.2400	327
21.2600	313
21.2800	319
21.3000	338
21.3200	349
21.3400	329
21.3600	326
21.3800	346
21.4000	340
21.4200	362
21.4400	345
21.4600	344
21.4800	348
21.5000	324
21.5200	330
21.5400	328
21.5600	333
21.5800	330
21.6000	307
21.6200	332
21.6400	349
21.6600	303
21.6800	319
21.7000	336
21.7200	307
21.7400	333
21.7600	320
21.7800	311
21.8000	292
21.8200	286
21.8400	325
21.8600	308
21.8800	318
21.9000	337
21.9200	303
21.9400	327
21.9600	328
21.9800	332
22.0000	351
22.0200	317
22.0400	352
22.0600	295
22.0800	323
22.1000	339
22.1200	298
22.1400	293
22.1600	291
22.1800	324
22.2000	352
22.2200	361
22.2400	312
22.2600	326
22.2800	310
22.3000	334
22.3200	317
22.3400	337
22.3600	343
22.3800	329
22.4000	308
22.4200	313
22.4400	319
22.4600	300
22.4800	282
22.5000	319
22.5200	316
22.5400	342
22.5600	312
22.5800	306
22.6000	316
22.6200	320
22.6400	354
22.6600	305
22.6800	366
22.7000	300
22.7200	303
22.7400	316
22.7600	350
22.7800	330
22.8000	309
22.8200	324
22.8400	336
22.8600	318
22.8800	308
22.9000	357
22.9200	302
22.9400	333
22.9600	311
22.9800	322
23.0000	329
23.0200	296
23.0400	292
23.0600	304
23.0800	333
23.1000	338
23.1200	334
23.1400	331
23.1600	357
23.1800	307
23.2000	297
23.2200	350
23.2400	337
23.2600	316
23.2800	299
23.3000	331
23.3200	361
23.3400	338
23.3600	309
23.3800	340
23.4000	327
23.4200	296
23.4400	321
23.4600	297
23.4800	340
23.5000	284
23.5200	270
23.5400	301
23.5600	337
23.5800	338
23.6000	311
23.6200	331
23.6400	328
23.6600	331
23.6800	283
23.7000	290
23.7200	350
23.7400	324
23.7600	304
23.7800	331
23.8000	312
23.8200	331
23.8400	281
23.8600	290
23.8800	304
23.9000	320
23.9200	321
23.9400	329
23.9600	283
23.9800	320
24.0000	331
24.0200	293
24.0400	331
24.0600	310
24.0800	347
24.1000	337
24.1200	319
24.1400	324
24.1600	292
24.1800	318
24.2000	291
24.2200	311
24.2400	304
24.2600	337
24.2800	318
24.3000	287
24.3200	304
24.3400	321
24.3600	327
24.3800	322
24.4000	283
24.4200	324
24.4400	322
24.4600	325
24.4800	315
24.5000	286
24.5200	346
24.5400	279
24.5600	308
24.5800	303
24.6000	309
24.6200	356
24.6400	319
24.6600	287
24.6800	313
24.7000	293
24.7200	286
24.7400	288
24.7600	355
24.7800	322
24.8000	279
24.8200	328
24.8400	332
24.8600	313
24.8800	302
24.9000	286
24.9200	295
24.9400	302
24.9600	306
24.9800	293
25.0000	309
25.0200	275
25.0400	288
25.0600	285
25.0800	296
25.1000	316
25.1200	295
25.1400	311
25.1600	294
25.1800	294
25.2000	287
25.2200	300
25.2400	309
25.2600	290
25.2800	260
25.3000	295
25.3200	314
25.3400	299
25.3600	288
25.3800	284
25.4000	305
25.4200	284
25.4400	273
25.4600	275
25.4800	304
25.5000	305
25.5200	298
25.5400	281
25.5600	312
25.5800	341
25.6000	302
25.6200	310
25.6400	301
25.6600	298
25.6800	279
25.7000	319
25.7200	298
25.7400	291
25.7600	272
25.7800	253
25.8000	290
25.8200	300
25.8400	296
25.8600	289
25.8800	297
25.9000	304
25.9200	254
25.9400	283
25.9600	301
25.9800	346
26.0000	290
26.0200	267
26.0400	314
26.0600	311
26.0800	271
26.1000	252
26.1200	278
26.1400	324
26.1600	272
26.1800	278
26.2000	307
26.2200	288
26.2400	262
26.2600	265
26.2800	287
26.3000	308
26.3200	291
26.3400	269
26.3600	277
26.3800	304
26.4000	297
26.4200	262
26.4400	270
26.4600	286
26.4800	285
26.5000	292
26.5200	282
26.5400	287
26.5600	265
26.5800	277
26.6000	289
26.6200	278
26.6400	266
26.6600	284
26.6800	293
26.7000	277
26.7200	261
26.7400	278
26.7600	266
26.7800	263
26.8000	300
26.8200	261
26.8400	308
26.8600	267
26.8800	275
26.9000	280
26.9200	300
26.9400	257
26.9600	276
26.9800	298
27.0000	276
27.0200	281
27.0400	288
27.0600	262
27.0800	294
27.1000	304
27.1200	285
27.1400	269
27.1600	294
27.1800	298
27.2000	270
27.2200	273
27.2400	304
27.2600	272
27.2800	326
27.3000	285
27.3200	314
27.3400	319
27.3600	290
27.3800	306
27.4000	297
27.4200	302
27.4400	295
27.4600	292
27.4800	293
27.5000	302
27.5200	273
27.5400	285
27.5600	278
27.5800	310
27.6000	260
27.6200	247
27.6400	292
27.6600	319
27.6800	285
27.7000	284
27.7200	284
27.7400	305
27.7600	267
27.7800	256
27.8000	251
27.8200	268
27.8400	270
27.8600	254
27.8800	255
27.9000	290
27.9200	253
27.9400	231
27.9600	241
27.9800	283
28.0000	261
28.0200	280
28.0400	239
28.0600	258
28.0800	297
28.1000	235
28.1200	227
28.1400	265
28.1600	258
28.1800	223
28.2000	256
28.2200	258
28.2400	264
28.2600	213
28.2800	249
28.3000	243
28.3200	238
28.3400	250
28.3600	248
28.3800	249
28.4000	253
28.4200	254
28.4400	250
28.4600	247
28.4800	266
28.5000	268
28.5200	244
28.5400	291
28.5600	265
28.5800	253
28.6000	230
28.6200	257
28.6400	269
28.6600	227
28.6800	247
28.7000	237
28.7200	274
28.7400	197
28.7600	207
28.7800	253
28.8000	289
28.8200	232
28.8400	230
28.8600	236
28.8800	254
28.9000	234
28.9200	219
28.9400	261
28.9600	224
28.9800	237
29.0000	222
29.0200	239
29.0400	245
29.0600	274
29.0800	268
29.1000	271
29.1200	265
29.1400	224
29.1600	250
29.1800	232
29.2000	270
29.2200	255
29.2400	227
29.2600	222
29.2800	271
29.3000	273
29.3200	221
29.3400	235
29.3600	270
29.3800	234
29.4000	207
29.4200	238
29.4400	203
29.4600	223
29.4800	215
29.5000	235
29.5200	232
29.5400	231
29.5600	214
29.5800	237
29.6000	236
29.6200	226
29.6400	246
29.6600	199
29.6800	234
29.7000	221
29.7200	221
29.7400	278
29.7600	253
29.7800	247
29.8000	202
29.8200	255
29.8400	276
29.8600	226
29.8800	234
29.9000	246
29.9200	249
29.9400	265
29.9600	227
29.9800	265
30.0000	231
30.0200	268
30.0400	235
30.0600	231
30.0800	237
30.1000	256
30.1200	274
30.1400	285
30.1600	292
30.1800	282
30.2000	287
30.2200	329
30.2400	347
30.2600	318
30.2800	328
30.3000	312
30.3200	380
30.3400	352
30.3600	311
30.3800	366
30.4000	411
30.4200	348
30.4400	324
30.4600	366
30.4800	370
30.5000	381
30.5200	311
30.5400	355
30.5600	376
30.5800	332
30.6000	308
30.6200	307
30.6400	315
30.6600	263
30.6800	263
30.7000	280
30.7200	269
30.7400	292
30.7600	237
30.7800	226
30.8000	251
30.8200	259
30.8400	224
30.8600	210
30.8800	272
30.9000	254
30.9200	200
30.9400	218
30.9600	240
30.9800	235
31.0000	216
31.0200	233
31.0400	203
31.0600	221
31.0800	216
31.1000	214
31.1200	234
31.1400	234
31.1600	202
31.1800	188
31.2000	222
31.2200	217
31.2400	219
31.2600	180
31.2800	239
31.3000	208
31.3200	218
31.3400	191
31.3600	230
31.3800	236
31.4000	193
31.4200	192
31.4400	214
31.4600	233
31.4800	205
31.5000	201
31.5200	198
31.5400	210
31.5600	213
31.5800	178
31.6000	208
31.6200	203
31.6400	221
31.6600	197
31.6800	220
31.7000	210
31.7200	180
31.7400	210
31.7600	197
31.7800	231
31.8000	229
31.8200	200
31.8400	197
31.8600	258
31.8800	226
31.9000	204
31.9200	204
31.9400	209
31.9600	193
31.9800	214
32.0000	227
32.0200	211
32.0400	196
32.0600	192
32.0800	181
32.1000	204
32.1200	227
32.1400	197
32.1600	196
32.1800	233
32.2000	169
32.2200	203
32.2400	177
32.2600	209
32.2800	190
32.3000	166
32.3200	187
32.3400	201
32.3600	197
32.3800	187
32.4000	206
32.4200	195
32.4400	206
32.4600	221
32.4800	164
32.5000	168
32.5200	173
32.5400	151
32.5600	216
32.5800	204
32.6000	197
32.6200	162
32.6400	201
32.6600	220
32.6800	168
32.7000	183
32.7200	178
32.7400	178
32.7600	161
32.7800	167
32.8000	210
32.8200	199
32.8400	195
32.8600	169
32.8800	186
32.9000	215
32.9200	188
32.9400	164
32.9600	181
32.9800	175
33.0000	186
33.0200	147
33.0400	165
33.0600	207
33.0800	151
33.1000	187
33.1200	180
33.1400	199
33.1600	169
33.1800	170
33.2000	156
33.2200	179
33.2400	207
33.2600	157
33.2800	174
33.3000	184
33.3200	171
33.3400	163
33.3600	177
33.3800	197
33.4000	176
33.4200	164
33.4400	157
33.4600	188
33.4800	180
33.5000	161
33.5200	151
33.5400	173
33.5600	188
33.5800	187
33.6000	153
33.6200	178
33.6400	174
33.6600	175
33.6800	160
33.7000	188
33.7200	191
33.7400	175
33.7600	162
33.7800	154
33.8000	186
33.8200	142
33.8400	152
33.8600	189
33.8800	157
33.9000	181
33.9200	161
33.9400	171
33.9600	170
33.9800	182
34.0000	153
34.0200	194
34.0400	194
34.0600	160
34.0800	169
34.1000	166
34.1200	170
34.1400	165
34.1600	166
34.1800	183
34.2000	185
34.2200	181
34.2400	144
34.2600	149
