# Created by:        SpecsLab2, Version 2.77-r27212
# 
# XY-Serializer Export Settings: as follows
#   Comment Prefix:           #
#   Counts Per Second:        yes
#   Kinetic Energy Axis:      yes
#   Separate Scan Data:       no
#   Separate Channel Data:    no
#   External Channel Data:    no
#   Transmission Function:    no
#   ErrorBar:                 no
# 
# Group:             05 Gold nach MCD kalib 2100V Det
#
# values in kinetic energy
# Region:            Au4f 10pass MedArea
# Acquisition Date:  07/31/13 13:53:18
# Analysis Method:   XPS
# Analyzer:          PHOIBOS HSA3500 DLSEGD 150 R6[HWType 30:15] DLSEGD
# Analyzer Lens:     MediumArea:1.5kV
# Analyzer Slit:     5:7x20\2:open
# Scan Mode:         Snapshot (FAT)
# Number of Scans:   40
# Curves/Scan:       1
# Values/Curve:      8
# Dwell Time:        0.5
# Excitation Energy: 1253.6
# Kinetic Energy:    1161.11
# Pass Energy:       10
# Bias Voltage:      80
# Detector Voltage:  2100
# Eff. Workfunction: 4.387
# Source:            XRayDummy
# Comment:           
#
# Cycle: 0
#
# Cycle: 0, Curve: 0
#
# ColumnLabels: energy counts/s
#
1159.9574  8.866199
1159.9774  7.316298
1159.9974  7.5198764
1160.0173  8.21712
1160.0373  8.85109
1160.0572  7.567716
1160.0772  8.892288
1160.0971  9.2213165
1160.1171  6.5292496
1160.137  8.310153
1160.157  8.657283
1160.1769  8.973965
1160.1969  8.027445
1160.2168  9.78956
1160.2368  8.085834
1160.2567  8.31543
1160.2767  9.486139
1160.2966  9.332043
1160.3166  7.558154
1160.3365  7.2698414
1160.3565  8.271648
1160.3764  7.7853394
1160.3964  7.5603944
1160.4163  8.0966067
1160.4363  9.34557
1160.4563  8.7108078
1160.4762  8.0089328
1160.4962  10.060224
1160.5161  8.8020465
1160.5361  8.91964
1160.556  8.8208819
1160.576  7.1933171
1160.5959  9.7843564
1160.6159  7.6349059
1160.6358  7.2330283
1160.6558  10.0198
1160.6757  6.4917393
1160.6957  8.8976479
1160.7156  7.888001
1160.7356  8.1895641
1160.7555  6.8950656
1160.7755  9.0265284
1160.7954  7.6062688
1160.8154  7.0097244
1160.8353  9.4422772
1160.8553  7.5519828
1160.8753  7.7391009
1160.8952  7.6161708
1160.9152  8.5129506
1160.9351  7.8086692
1160.9551  7.2278549
1160.975  7.6713546
1160.995  7.378013
1161.0149  7.7896748
1161.0349  8.4610246
1161.0548  7.61631
1161.0748  9.2876352
1161.0947  8.1977776
1161.1147  7.5988646
1161.1346  8.7956706
1161.1546  8.5027103
1161.1745  8.475684
1161.1945  9.8689988
1161.2144  8.1921358
1161.2344  9.2775001
1161.2543  7.362684
1161.2743  8.9659543
1161.2942  7.909623
1161.3142  7.4656868
1161.3342  6.1932145
1161.3541  8.675901
1161.3741  7.0201151
1161.394  7.1468811
1161.414  7.5995229
1161.4339  6.7076383
1161.4539  8.4562663
1161.4738  10.179918
1161.4938  8.734671
1161.5137  6.2630568
1161.5337  7.4894475
1161.5536  8.297452
1161.5736  9.576444
1161.5935  8.396319
1161.6135  8.128073
1161.6334  6.6869632
1161.6534  6.8055983
1161.6733  8.35941
1161.6933  9.6042625
1161.7132  7.589967
1161.7332  7.84674
1161.7532  7.6927295
1161.7731  9.046994
1161.7931  7.080066
1161.813  7.556621
1161.833  9.221843
1161.8529  7.860615
1161.8729  8.7405195
1161.8928  9.51671
1161.9128  7.6020165
1161.9327  6.747272
1161.9527  8.4076025
1161.9726  7.4825775
1161.9926  7.7450224
1162.0125  9.24426
1162.0325  11.536938
1162.0524  8.765484
1162.0724  8.2994688
1162.0923  10.219803
1162.1123  7.6756064
1162.1323  9.514523
1162.1522  8.771949
1162.1722  9.68968
1162.1921  8.5222875
1162.2121  9.678315
1162.232  8.613171
1162.252  9.1128
1162.2719  9.598401
1162.2919  8.462598
1162.3118  7.558154
1162.3318  7.6628058
1162.3517  10.044144
1162.3717  8.6230025
1162.3916  7.7030433
1162.4116  8.4525015
1162.4315  9.54655
1162.4515  8.8044724
1162.4714  8.6005017
1162.4914  8.973909
1162.5113  8.3055208
1162.5313  9.0980328
1162.5512  8.6865537
1162.5712  8.2157175
1162.5912  9.6156606
1162.6111  7.7460939
1162.6311  9.0706084
1162.651  12.224156
1162.671  8.9578749
1162.6909  9.5418214
1162.7109  7.9955647
1162.7308  10.471234
1162.7508  7.3260072
1162.7707  8.9487135
1162.7907  7.7917875
1162.8106  8.940975
1162.8306  9.6539874
1162.8505  9.8957016
1162.8705  9.6399327
1162.8904  8.4221148
1162.9104  8.9858923
1162.9303  9.597247
1162.9503  8.385909
1162.9702  9.3995169
1162.9902  8.2413975
1163.0102  9.21855
1163.0301  8.7760627
1163.0501  9.81084
1163.07  9.5295007
1163.09  8.8518556
1163.1099  7.3912453
1163.1299  9.3702622
1163.1498  9.4422363
1163.1698  9.989199
1163.1897  9.1166536
1163.2097  8.4239887
1163.2296  9.1286632
1163.2496  8.2216638
1163.2695  10.141104
1163.2895  9.4915476
1163.3094  8.5775976
1163.3294  9.4903215
1163.3493  9.2098026
1163.3693  8.3311004
1163.3892  9.3527086
1163.4092  8.0898147
1163.4292  7.7491971
1163.4491  8.4068145
1163.4691  11.100443
1163.489  10.102752
1163.509  8.6354268
1163.5289  9.40281
1163.5489  9.5529875
1163.5688  9.131028
1163.5888  9.560772
1163.6087  8.89935
1163.6287  7.5167323
1163.6486  7.6997645
1163.6686  10.336298
1163.6885  8.6655
1163.7085  9.722685
1163.7284  10.771434
1163.7484  7.4104275
1163.7683  8.108155
1163.7883  8.765796
1163.8082  7.965087
1163.8282  8.322151
1163.8481  6.288492
1163.8681  8.926488
1163.8881  11.420052
1163.908  8.6505705
1163.928  8.8557945
1163.9479  10.700585
1163.9679  7.9259895
1163.9878  8.6906356
1164.0078  9.706473
1164.0277  11.842148
1164.0477  10.943244
1164.0676  9.0404928
1164.0876  11.688166
1164.1075  9.5197456
1164.1275  11.26086
1164.1474  11.294601
1164.1674  10.90089
1164.1873  10.446675
1164.2073  10.735143
1164.2272  11.367042
1164.2472  11.675775
1164.2672  10.552628
1164.2871  12.925749
1164.3071  11.111988
1164.327  9.6276278
1164.347  11.440656
1164.3669  11.480912
1164.3869  10.93642
1164.4068  10.409923
1164.4268  12.36027
1164.4467  12.457392
1164.4667  10.966777
1164.4866  14.216561
1164.5066  11.645785
1164.5265  11.996916
1164.5465  14.50744
1164.5664  10.95429
1164.5864  13.158272
1164.6063  13.157241
1164.6263  13.527718
1164.6462  16.833264
1164.6662  12.729612
1164.6862  15.903036
1164.7061  13.94742
1164.7261  15.767967
1164.746  14.795662
1164.766  15.134998
1164.7859  15.027019
1164.8059  15.306949
1164.8258  19.053922
1164.8458  18.793153
1164.8657  18.827286
1164.8857  17.287499
1164.9056  17.154885
1164.9256  18.278393
1164.9455  16.811751
1164.9655  17.998178
1164.9854  16.953732
1165.0054  19.128491
1165.0253  20.252453
1165.0453  20.26713
1165.0652  22.686984
1165.0852  20.71247
1165.1051  21.384783
1165.1251  22.364871
1165.1451  28.138804
1165.165  28.050478
1165.185  25.358459
1165.2049  24.26727
1165.2249  31.851097
1165.2448  27.691873
1165.2648  27.681296
1165.2847  29.661086
1165.3047  26.72557
1165.3246  31.634405
1165.3446  34.748096
1165.3645  30.702431
1165.3845  34.102093
1165.4044  29.948657
1165.4244  30.413516
1165.4443  38.720799
1165.4643  43.048057
1165.4842  42.515748
1165.5042  37.056419
1165.5241  45.538028
1165.5441  40.177136
1165.5641  42.982644
1165.584  44.065353
1165.604  46.573265
1165.6239  38.315811
1165.6439  38.796878
1165.6638  39.029408
1165.6838  53.076188
1165.7037  42.65436
1165.7237  43.656408
1165.7436  43.474508
1165.7636  48.904977
1165.7835  40.288947
1165.8035  45.441843
1165.8234  38.124449
1165.8434  33.68835
1165.8633  41.470976
1165.8833  47.855456
1165.9032  38.53436
1165.9232  32.049542
1165.9431  34.241872
1165.9631  31.593105
1165.9831  30.709914
1166.003  32.560338
1166.023  39.311048
1166.0429  31.250856
1166.0629  27.46729
1166.0828  32.832586
1166.1028  25.369374
1166.1227  30.169469
1166.1427  27.577173
1166.1626  24.499475
1166.1826  26.446583
1166.2025  22.91647
1166.2225  25.19499
1166.2424  23.69328
1166.2624  21.89109
1166.2823  19.939272
1166.3023  20.572194
1166.3222  18.71493
1166.3422  21.860784
1166.3621  19.266251
1166.3821  17.355622
1166.4021  17.883714
1166.422  18.238935
1166.442  17.889939
1166.4619  16.199887
1166.4819  18.089511
1166.5018  16.927013
1166.5218  16.813521
1166.5417  17.46266
1166.5617  14.240577
1166.5816  14.592187
1166.6016  13.120178
1166.6215  13.996887
1166.6415  20.189897
1166.6614  11.786678
1166.6814  13.608167
1166.7013  12.656656
1166.7213  13.690018
1166.7412  13.000072
1166.7612  13.461978
1166.7811  12.652379
1166.8011  11.659031
1166.8211  11.9828
1166.841  13.715095
1166.861  12.762728
1166.8809  11.202622
1166.9009  12.726431
1166.9208  11.734816
1166.9408  11.101346
1166.9607  10.453274
1166.9807  9.1832715
1167.0006  10.693518
1167.0206  12.241482
1167.0405  10.71447
1167.0605  11.803036
1167.0804  10.290827
1167.1004  10.256391
1167.1203  10.87304
1167.1403  13.153364
1167.1602  11.704516
1167.1802  9.4706984
1167.2001  9.0809052
1167.2201  11.410829
1167.2401  8.8352208
1167.26  11.011585
1167.28  9.8870288
1167.2999  8.4584643
1167.3199  9.8467655
1167.3398  10.544557
1167.3598  9.3883467
1167.3797  10.587972
1167.3997  8.4166759
1167.4196  8.7907559
1167.4396  11.275022
1167.4595  11.479482
1167.4795  11.57607
1167.4994  10.201191
1167.5194  9.62148
1167.5393  10.098872
1167.5593  10.57863
1167.5792  10.847799
1167.5992  10.916536
1167.6191  8.4441214
1167.6391  8.5939307
1167.659  10.336298
1167.679  12.276125
1167.699  10.600863
1167.7189  11.05677
1167.7389  9.174815
1167.7588  9.985833
1167.7788  10.451526
1167.7987  9.4968345
1167.8187  8.547074
1167.8386  6.6253755
1167.8586  11.901984
1167.8785  11.420052
1167.8985  12.582648
1167.9184  10.542613
1167.9384  9.9362575
1167.9583  9.97677
1167.9783  10.67192
1167.9982  11.914824
1168.0182  12.574652
1168.0382  12.358788
1168.0581  11.510573
1168.0781  13.56767
1168.098  11.164518
1168.118  13.669599
1168.1379  11.925264
1168.1579  14.149135
1168.1778  13.470712
1168.1978  12.90442
1168.2177  13.300611
1168.2377  14.46657
1168.2576  13.639833
1168.2776  13.91112
1168.2975  13.564634
1168.3175  13.016946
1168.3374  15.03936
1168.3574  14.880839
1168.3773  13.55165
1168.3973  14.191305
1168.4172  16.028155
1168.4372  16.344473
1168.4571  14.834728
1168.4771  17.239351
1168.4971  19.09367
1168.517  17.3487
1168.537  19.61191
1168.5569  17.052178
1168.5769  18.26132
1168.5968  17.827135
1168.6168  18.219412
1168.6367  26.151678
1168.6567  19.692818
1168.6766  22.787641
1168.6966  21.261748
1168.7165  25.546551
1168.7365  22.588522
1168.7564  23.772452
1168.7764  24.34006
1168.7963  23.067716
1168.8163  29.766461
1168.8362  32.55165
1168.8562  32.902493
1168.8761  30.102008
1168.8961  32.93394
1168.916  32.543392
1168.936  30.269138
1168.956  34.731847
1168.9759  32.023716
1168.9959  40.699898
1169.0158  39.784818
1169.0358  40.19002
1169.0557  41.939478
1169.0757  42.60228
1169.0956  41.482326
1169.1156  46.983909
1169.1355  46.506537
1169.1555  55.949605
1169.1754  51.115218
1169.1954  46.447864
1169.2153  55.367327
1169.2353  48.307388
1169.2552  54.448587
1169.2752  53.258128
1169.2951  49.400608
1169.3151  54.35771
1169.335  55.659242
1169.355  53.327501
1169.375  54.08689
1169.3949  51.725785
1169.4149  50.953054
1169.4348  58.303731
1169.4548  58.85942
1169.4747  60.090327
1169.4947  51.575324
1169.5146  54.175493
1169.5346  53.551318
1169.5545  52.948827
1169.5745  52.216524
1169.5944  47.581858
1169.6144  39.584869
1169.6343  36.064703
1169.6543  40.272023
1169.6742  46.216
1169.6942  39.643464
1169.7141  38.092356
1169.7341  33.452787
1169.754  36.358674
1169.774  30.933146
1169.794  33.289979
1169.8139  27.777991
1169.8339  25.827735
1169.8538  26.593496
1169.8738  31.541096
1169.8937  20.708942
1169.9137  24.037156
1169.9336  24.305615
1169.9536  19.842687
1169.9735  19.812848
1169.9935  21.56994
1170.0134  23.623254
1170.0334  18.23874
1170.0533  16.253126
1170.0733  19.206182
1170.0932  15.849629
1170.1132  18.306424
1170.1331  16.511904
1170.1531  15.580565
1170.173  16.549733
1170.193  16.575505
1170.213  15.292773
1170.2329  13.6692
1170.2529  15.267632
1170.2728  14.258898
1170.2928  13.864958
1170.3127  11.59245
1170.3327  14.448528
1170.3526  13.74753
1170.3726  12.362909
1170.3925  11.522094
1170.4125  11.707085
1170.4324  11.708075
1170.4524  10.693746
1170.4723  12.327317
1170.4923  11.510369
1170.5122  10.480577
1170.5322  11.059684
1170.5521  9.8953753
1170.5721  10.923053
1170.592  9.6733517
1170.612  9.6179727
1170.632  12.374453
1170.6519  8.3776077
1170.6719  9.3002563
1170.6918  7.6370192
1170.7118  10.43049
1170.7317  8.1519786
1170.7517  8.7930837
1170.7716  9.9067013
1170.7916  8.1184053
1170.8115  9.315251
1170.8315  9.765495
1170.8514  8.6895168
1170.8714  8.1803316
1170.8913  9.3298499
1170.9113  7.0670637
1170.9312  6.8285259
1170.9512  7.165551
1170.9711  7.5742368
1170.9911  8.296695
1171.011  8.2810028
1171.031  7.61631
1171.051  6.9657264
1171.0709  7.412884
1171.0909  7.4327692
1171.1108  8.7072719
1171.1308  7.2813265
1171.1507  7.971179
1171.1707  8.2757972
1171.1906  5.8349646
1171.2106  7.5906819
1171.2305  6.749127
1171.2505  6.7027037
1171.2704  7.777796
1171.2904  5.6786873
1171.3103  7.1734355
1171.3303  6.5402946
1171.3502  6.0051587
1171.3702  6.1322005
1171.3901  6.2920781
1171.4101  5.7910667
1171.43  5.934222
1171.45  7.255899
1171.4699  7.4192085
1171.4899  5.456451
1171.5099  6.12276
1171.5298  5.568027
1171.5498  7.015302
1171.5697  5.638404
1171.5897  8.128073
1171.6096  5.4667144
1171.6296  4.3218033
1171.6495  6.2695575
1171.6695  6.7157625
1171.6894  5.080887
1171.7094  6.06339
1171.7293  5.081436
1171.7493  5.547685
1171.7692  6.3214875
1171.7892  4.3910095
1171.8091  4.723383
1171.8291  3.7057185
1171.849  5.0211495
1171.869  6.253838
1171.8889  6.291324
1171.9089  3.373636
1171.9289  5.0445615
1171.9488  5.1546645
1171.9688  5.62865
1171.9887  6.316911
1172.0087  6.592536
1172.0286  6.315504
1172.0486  5.3353728
1172.0685  6.695733
1172.0885  5.731784
1172.1084  5.660539
1172.1284  6.650628
1172.1483  5.670665
1172.1683  4.7834775
1172.1882  5.451005
1172.2082  7.206939
1172.2281  6.15114
1172.2481  5.781493
1172.268  6.491856
1172.288  5.75621
1172.308  4.7646934
1172.3279  5.156352
1172.3479  6.0114646
1172.3678  5.9437063
1172.3878  4.5821455
1172.4077  5.42646
1172.4277  6.0413667
1172.4476  5.6426572
1172.4676  5.5732698
1172.4875  6.2291406
1172.5075  5.9761588
1172.5274  6.4477512
1172.5474  4.6373161
1172.5673  5.8200051
1172.5873  5.7076481
1172.6072  5.5909354
1172.6272  7.665147
1172.6471  5.1498714
1172.6671  5.5559973
1172.687  5.4140371
1172.707  5.704174
1172.7269  4.9558284
1172.7469  5.3692281
1172.7669  5.63977
1172.7868  4.6135431
1172.8068  5.7161767
1172.8267  6.1197102
1172.8467  5.3404322
1172.8666  4.5132864
1172.8866  5.9762633
1172.9065  4.929495
1172.9265  4.8318809
1172.9464  5.2266372
1172.9664  5.1018175
1172.9863  6.0381503
1173.0063  5.8057031
1173.0262  6.06723
1173.0462  5.8531451
1173.0661  4.9709928
1173.0861  5.3565767
1173.106  6.1437096
1173.126  5.637156
1173.1459  6.457664
1173.1659  5.8417392
1173.1859  4.7143423
1173.2058  6.1519252
1173.2258  5.0311674
1173.2457  4.9617417
1173.2657  5.2291397
1173.2856  4.9638875
1173.3056  6.059548
1173.3255  5.7394422
1173.3455  5.2862313
1173.3654  5.1616364
1173.3854  4.3309109
1173.4053  4.0829103
1173.4253  6.4781923
1173.4452  6.714414
1173.4652  6.8930235
1173.4851  6.168162
1173.5051  5.6307525
1173.525  5.895558
1173.545  5.122284
1173.5649  6.312561
1173.5849  5.992229
1173.6049  5.1250448
1173.6248  5.2159695
1173.6448  5.4788025
1173.6647  7.22125
1173.6847  5.457249
1173.7046  7.775406
1173.7246  6.492946
1173.7445  7.425363
1173.7645  5.225763
1173.7844  5.514291
1173.8044  6.522767
1173.8243  5.839314
1173.8443  8.926488
1173.8642  12.23577
1173.8842  5.24277
1173.9041  4.217045
1173.9241  6.5732165
1173.944  6.983739
1173.964  8.4204604
1173.9839  8.936118
1174.0039  9.095258
1174.0239  6.914388
1174.0438  8.1018624
1174.0638  9.5737235
1174.0837  6.8781408
1174.1037  8.671464
1174.1236  7.281291
1174.1436  7.37737
1174.1635  7.9724625
1174.1835  8.67711
1174.2034  8.613171
1174.2234  7.29024
1174.2433  6.960244
1174.2633  7.53519
1174.2832  6.907452
1174.3032  7.2698414
1174.3231  7.25112
1174.3431  7.7853394
1174.363  6.656951
1174.383  6.3616196
1174.4029  7.486505
1174.4229  6.8375158
1174.4429  6.0066996
1174.4628  7.2735894
1174.4828  7.0416372
1174.5027  7.0911138
1174.5227  7.4328243
1174.5426  6.5360597
1174.5626  6.2417446
1174.5825  6.671277
1174.6025  6.7247614
1174.6224  9.368513
1174.6424  5.5850718
1174.6623  6.965127
1174.6823  6.3821099
1174.7022  6.4375678
1174.7222  5.7817998
1174.7421  6.8477112
1174.7621  6.3076375
1174.782  5.6864601
1174.802  6.8594121
1174.8219  6.9877542
1174.8419  7.1960061
1174.8619  6.447552
1174.8818  6.1052474
1174.9018  6.4563298
1174.9217  5.4308744
1174.9417  5.2687875
1174.9616  5.0625728
1174.9816  7.0521908
1175.0015  5.6256813
1175.0215  6.0242
1175.0414  7.2075919
1175.0614  5.014598
1175.0813  5.6057198
1175.1013  5.3481213
1175.1212  6.0129664
1175.1412  6.457664
1175.1611  5.753228
1175.1811  5.1780481
1175.201  6.5984359
1175.221  6.0946662
1175.2409  6.1804151
1175.2609  5.8443326
1175.2808  5.5198429
1175.3008  5.4803265
1175.3208  4.3601964
1175.3407  4.6095936
1175.3607  5.5145688
1175.3806  5.1480639
1175.4006  5.3744432
1175.4205  7.3188738
1175.4405  6.714414
1175.4604  5.8406535
1175.4804  6.0258198
1175.5003  5.46675
1175.5203  5.568027
1175.5402  5.734731
1175.5602  5.025534
1175.5801  7.000822
1175.6001  5.3202846
1175.62  5.0669418
1175.64  5.42232
1175.6599  7.2934625
1175.6799  5.143614
1175.6998  5.635386
1175.7198  6.210644
1175.7398  5.206289
1175.7597  5.900055
1175.7797  5.4121745
1175.7996  5.847998
1175.8196  4.042602
1175.8395  5.0211495
1175.8595  4.622402
1175.8794  3.9320775
1175.8994  5.4821585

# values in kinetic energy
# Region:            Au4f 50pass MedArea
# Acquisition Date:  07/31/13 13:57:43
# Analysis Method:   XPS
# Analyzer:          PHOIBOS HSA3500 DLSEGD 150 R6[HWType 30:15] DLSEGD
# Analyzer Lens:     MediumArea:1.5kV
# Analyzer Slit:     5:7x20\2:open
# Scan Mode:         Snapshot (FAT)
# Number of Scans:   20
# Curves/Scan:       1
# Values/Curve:      8
# Dwell Time:        0.5
# Excitation Energy: 1253.6
# Kinetic Energy:    1165.55
# Pass Energy:       50
# Bias Voltage:      80
# Detector Voltage:  2100
# Eff. Workfunction: 4.387
# Source:            XRayDummy
# Comment:           
#
# Cycle: 0
#
# Cycle: 0, Curve: 0
#
# ColumnLabels: energy counts/s
#
1159.7872  250.69942
1159.887  177.58651
1159.9868  189.12264
1160.0865  220.93781
1160.1863  255.52181
1160.2861  215.38046
1160.3858  204.02861
1160.4856  230.82659
1160.5853  201.7588
1160.6851  241.35575
1160.7848  221.76404
1160.8846  229.68946
1160.9844  218.94032
1161.0841  225.15988
1161.1839  241.63753
1161.2836  249.4629
1161.3834  246.0783
1161.4832  251.44349
1161.5829  227.94592
1161.6827  217.89876
1161.7825  255.77654
1161.8822  226.36613
1161.982  226.24123
1162.0817  227.50575
1162.1815  261.77645
1162.2813  257.10933
1162.381  247.63984
1162.4808  284.42568
1162.5805  288.25574
1162.6803  281.86062
1162.7801  296.77566
1162.8798  251.43747
1162.9796  312.76201
1163.0794  279.37826
1163.1791  298.62632
1163.2789  395.28111
1163.3786  294.63067
1163.4784  337.14436
1163.5782  322.90608
1163.6779  394.64735
1163.7777  350.2837
